Elapsed Seconds,Ax (g),Ay (g),Az (g),Mx (mG),My (mG),Mz (mG)
0.000,-0.0064,0.0026,-1.0003,-223.59,-42.84,-476.37
10.000,-0.0080,0.0015,-0.9996,-220.98,-41.77,-474.17
20.000,-0.8479,-0.4606,-0.1223,-430.01,-250.37,62.86
30.000,-0.5692,-0.3233,-0.3996,-257.81,-329.56,-141.97
40.000,-0.8955,0.8102,0.0530,-546.13,-12.49,-33.80
50.000,-0.7049,-0.6148,0.0796,-541.43,-82.63,-43.03
60.000,0.2900,-0.9488,-0.2522,-22.50,-453.60,83.49
70.000,-0.9960,-0.1155,-0.0150,-447.70,48.23,66.10
80.000,-0.9843,-0.1120,-0.0303,-536.06,125.96,71.93
90.000,-0.0170,0.9155,-0.3707,-122.10,496.38,16.85
100.000,0.1007,0.5597,-0.8104,-65.96,461.18,-292.16
110.000,1.0022,0.0887,0.0677,419.94,250.24,-93.84
120.000,-0.5582,-0.4182,-0.7038,-87.71,-73.37,-463.19
130.000,0.9841,0.1786,0.2426,438.11,-130.98,-61.33
140.000,0.6698,-0.6783,-0.1059,427.67,-273.79,105.32
150.000,-0.6657,-0.1552,0.6624,-350.99,-85.89,258.41
160.000,-0.9342,-0.1480,0.1397,-480.16,-227.72,146.43
170.000,0.9913,0.1491,-0.2475,405.31,164.17,-102.46
180.000,0.0563,-0.2423,-0.9696,-4.30,-318.79,-355.08
190.000,0.0522,-0.2436,-0.9681,-103.65,-389.65,-394.50
200.000,0.0141,0.0667,-0.8014,-213.73,-189.55,-472.62
210.000,0.0379,0.0787,-0.9885,-5.73,-217.01,-497.32
220.000,-0.0040,0.0458,-1.0013,-42.30,-226.58,-479.05
230.000,-0.0215,0.0332,-1.0093,-39.89,-224.00,-467.65
240.000,-0.0098,0.0356,-0.9973,-39.16,-224.54,-465.61
250.000,-0.0141,0.0412,-0.9990,-46.05,-217.90,-463.02
260.000,-0.0136,0.0394,-0.9978,-48.10,-213.03,-461.43
270.000,0.0540,0.0027,-0.9838,-127.77,88.53,-356.83
280.000,-0.0429,0.0390,-0.9960,-163.38,-99.05,-297.24
290.000,-0.0437,0.0405,-0.9970,-120.18,-193.23,-288.31
300.000,-0.0456,0.0403,-0.9963,-122.09,-195.93,-288.22
310.000,-0.0495,0.0402,-0.9956,-122.48,-193.73,-288.86
320.000,-0.0479,0.0405,-0.9950,-124.76,-191.95,-292.39
330.000,-0.0483,0.0410,-0.9947,-121.30,-191.44,-289.93
340.000,-0.0475,0.0403,-0.9949,-117.27,-191.08,-287.87
350.000,-0.0513,0.0426,-0.9952,-111.16,-184.78,-289.84
360.000,-0.0498,0.0414,-0.9946,-107.40,-184.78,-284.37
370.000,-0.0495,0.0416,-0.9946,-113.02,-179.44,-283.59
380.000,-0.0468,0.0435,-0.9943,-107.53,-176.93,-282.60
390.000,-0.0508,0.0419,-0.9939,-103.41,-179.73,-280.46
400.000,-0.0501,0.0423,-0.9932,-99.21,-176.67,-281.52
410.000,-0.0507,0.0434,-0.9944,-95.16,-174.28,-280.80
420.000,-0.0532,0.0433,-0.9935,-90.29,-168.13,-276.33
430.000,-0.0505,0.0416,-0.9931,-91.16,-167.34,-279.60
440.000,-0.0512,0.0414,-0.9921,-96.71,-167.16,-275.21
450.000,-0.0516,0.0426,-0.9922,-89.05,-163.86,-273.53
460.000,-0.0508,0.0445,-0.9927,-93.58,-162.22,-270.61
470.000,-0.0509,0.0429,-0.9919,-87.77,-165.51,-271.36
480.000,-0.0534,0.0443,-0.9924,-78.54,-162.51,-269.01
490.000,-0.0522,0.0436,-0.9917,-78.21,-159.91,-268.97
500.000,-0.0548,0.0449,-0.9916,-89.59,-156.09,-268.61
510.000,-0.0513,0.0437,-0.9919,-85.05,-157.72,-270.15
520.000,-0.0526,0.0449,-0.9909,-80.37,-153.39,-267.90
530.000,-0.0534,0.0446,-0.9895,-84.79,-152.87,-266.37
540.000,-0.0562,0.0439,-0.9900,-81.98,-148.63,-263.85
550.000,-0.0539,0.0443,-0.9903,-78.92,-146.87,-261.09
560.000,-0.0544,0.0454,-0.9905,-76.63,-147.31,-259.32
570.000,-0.0533,0.0448,-0.9899,-76.04,-147.02,-257.53
580.000,-0.0527,0.0450,-0.9899,-80.41,-142.03,-261.00
590.000,-0.0566,0.0460,-0.9905,-75.84,-143.34,-259.53
600.000,-0.0547,0.0453,-0.9890,-75.29,-142.74,-265.00
610.000,-0.0558,0.0460,-0.9903,-74.48,-139.38,-258.92
620.000,-0.0527,0.0446,-0.9902,-73.45,-138.16,-258.22
630.000,-0.0530,0.0442,-0.9890,-69.97,-136.95,-254.78
640.000,-0.0562,0.0456,-0.9896,-71.98,-137.85,-253.70
650.000,-0.0551,0.0451,-0.9883,-76.12,-136.15,-256.26
660.000,-0.0544,0.0454,-0.9884,-71.80,-135.13,-255.71
670.000,-0.0571,0.0451,-0.9873,-63.25,-137.50,-254.80
680.000,-0.0535,0.0458,-0.9878,-62.60,-133.65,-253.51
690.000,-0.0539,0.0465,-0.9888,-67.88,-131.40,-258.12
700.000,-0.0552,0.0462,-0.9899,-60.49,-135.64,-255.33
710.000,-0.0551,0.0452,-0.9877,-61.54,-129.59,-256.46
720.000,-0.0537,0.0447,-0.9890,-66.47,-124.43,-258.14
730.000,-0.0545,0.0452,-0.9874,-59.55,-123.68,-252.94
740.000,-0.0555,0.0455,-0.9871,-53.18,-127.39,-253.70
750.000,-0.0561,0.0457,-0.9873,-57.31,-126.62,-253.68
760.000,-0.0527,0.0457,-0.9880,-59.41,-122.75,-255.39
770.000,-0.0562,0.0458,-0.9871,-58.58,-123.76,-257.74
780.000,-0.0564,0.0465,-0.9887,-53.70,-122.25,-260.19
790.000,-0.0578,0.0474,-0.9874,-61.06,-119.29,-255.74
800.000,-0.0554,0.0464,-0.9867,-60.66,-121.99,-251.82
810.000,-0.0586,0.0469,-0.9880,-53.16,-120.85,-247.30
820.000,-0.0577,0.0469,-0.9879,-60.57,-125.15,-251.60
830.000,-0.0582,0.0463,-0.9875,-55.75,-120.16,-251.12
840.000,-0.0587,0.0465,-0.9881,-51.88,-119.43,-252.21
850.000,-0.0554,0.0476,-0.9877,-60.74,-119.36,-250.41
860.000,-0.0569,0.0473,-0.9871,-56.19,-120.43,-251.39
870.000,-0.0567,0.0474,-0.9872,-50.76,-114.59,-248.30
880.000,-0.0583,0.0465,-0.9879,-51.84,-118.57,-249.32
890.000,-0.0595,0.0453,-0.9867,-61.62,-121.37,-248.11
900.000,-0.0562,0.0477,-0.9871,-57.61,-118.27,-256.15
910.000,-0.0557,0.0464,-0.9870,-65.92,-110.41,-256.55
920.000,-0.0591,0.0467,-0.9873,-52.91,-114.41,-248.29
930.000,-0.0557,0.0457,-0.9873,-57.33,-113.23,-249.36
940.000,-0.0567,0.0471,-0.9877,-64.95,-115.12,-248.14
950.000,-0.0580,0.0472,-0.9872,-60.61,-112.74,-248.25
960.000,-0.0574,0.0466,-0.9878,-52.57,-112.86,-244.71
970.000,-0.0554,0.0461,-0.9866,-49.02,-114.71,-244.47
980.000,-0.0561,0.0461,-0.9872,-55.01,-111.76,-248.65
990.000,-0.0566,0.0480,-0.9873,-52.32,-112.54,-251.27
1000.000,-0.0572,0.0474,-0.9871,-56.55,-109.80,-248.34
1010.000,-0.0556,0.0461,-0.9866,-58.91,-112.54,-250.85
1020.000,-0.0581,0.0465,-0.9862,-63.42,-118.02,-247.23
1030.000,-0.0550,0.0467,-0.9860,-57.44,-113.82,-241.97
1040.000,-0.0586,0.0463,-0.9875,-55.75,-113.92,-246.63
1050.000,-0.0569,0.0460,-0.9875,-53.69,-111.73,-244.41
1060.000,-0.0586,0.0479,-0.9866,-60.62,-107.44,-242.68
1070.000,-0.0572,0.0466,-0.9866,-52.13,-111.00,-248.92
1080.000,-0.0536,0.0473,-0.9873,-49.38,-109.13,-248.62
1090.000,-0.0568,0.0474,-0.9864,-49.11,-110.62,-246.73
1100.000,-0.0564,0.0460,-0.9873,-47.17,-112.51,-251.28
1110.000,-0.0566,0.0470,-0.9872,-47.71,-111.38,-249.62
1120.000,-0.0578,0.0477,-0.9857,-52.52,-109.46,-246.98
1130.000,-0.0558,0.0470,-0.9862,-50.99,-110.62,-249.46
1140.000,-0.0539,0.0484,-0.9876,-51.66,-108.15,-250.52
1150.000,-0.0580,0.0465,-0.9871,-52.22,-107.03,-250.22
1160.000,-0.0564,0.0460,-0.9871,-55.72,-111.73,-247.28
1170.000,-0.0558,0.0476,-0.9867,-61.09,-109.37,-243.40
1180.000,-0.0581,0.0477,-0.9873,-53.16,-106.63,-242.28
1190.000,-0.0574,0.0470,-0.9874,-55.75,-106.20,-245.00
1200.000,-0.0563,0.0459,-0.9871,-58.53,-101.74,-244.37
1210.000,-0.0555,0.0472,-0.9870,-57.16,-105.21,-244.71
1220.000,-0.0582,0.0478,-0.9879,-56.13,-104.92,-242.38
1230.000,-0.0592,0.0459,-0.9860,-57.69,-103.66,-242.76
1240.000,-0.0564,0.0470,-0.9866,-52.17,-107.62,-242.57
1250.000,-0.0561,0.0477,-0.9868,-49.53,-109.94,-247.54
1260.000,-0.0569,0.0465,-0.9880,-51.51,-109.72,-244.38
1270.000,-0.0541,0.0484,-0.9881,-53.64,-106.46,-250.35
1280.000,-0.0601,0.0473,-0.9856,-64.43,-110.59,-247.24
1290.000,-0.0554,0.0469,-0.9870,-56.63,-105.97,-249.10
1300.000,-0.0554,0.0469,-0.9868,-53.94,-108.20,-247.50
1310.000,-0.0572,0.0466,-0.9864,-58.52,-107.70,-248.31
1320.000,-0.0579,0.0463,-0.9867,-52.67,-111.45,-242.63
1330.000,-0.0565,0.0466,-0.9864,-50.96,-110.83,-244.81
1340.000,-0.0577,0.0472,-0.9862,-47.74,-107.58,-243.12
1350.000,-0.0567,0.0475,-0.9870,-46.61,-109.37,-241.65
1360.000,-0.0564,0.0475,-0.9864,-56.11,-109.26,-247.93
1370.000,-0.0541,0.0458,-0.9880,-47.46,-107.33,-244.90
1380.000,-0.0566,0.0471,-0.9866,-53.74,-107.96,-239.83
1390.000,-0.0558,0.0472,-0.9870,-47.61,-107.74,-244.36
1400.000,-0.0532,0.0469,-0.9854,-51.30,-106.27,-243.37
1410.000,-0.0552,0.0482,-0.9880,-50.40,-104.88,-240.88
1420.000,-0.0565,0.0466,-0.9862,-55.55,-104.12,-243.32
1430.000,-0.0597,0.0474,-0.9861,-56.21,-111.04,-237.82
1440.000,-0.0561,0.0469,-0.9857,-50.50,-110.26,-242.48
1450.000,-0.0570,0.0460,-0.9865,-58.08,-107.83,-246.94
1460.000,-0.0569,0.0468,-0.9854,-54.90,-106.77,-245.01
1470.000,-0.0599,0.0460,-0.9859,-47.95,-109.17,-249.45
1480.000,-0.0547,0.0472,-0.9869,-48.89,-106.78,-246.53
1490.000,-0.0569,0.0465,-0.9860,-48.34,-108.43,-245.74
1500.000,-0.0575,0.0449,-0.9873,-50.49,-108.25,-245.87
1510.000,-0.0569,0.0467,-0.9863,-58.10,-108.53,-248.18
1520.000,-0.0555,0.0478,-0.9882,-47.89,-107.32,-244.49
1530.000,-0.0587,0.0471,-0.9872,-46.88,-107.74,-243.26
1540.000,-0.0560,0.0482,-0.9882,-49.79,-109.75,-244.52
1550.000,-0.0544,0.0474,-0.9868,-50.80,-111.61,-241.27
1560.000,-0.0587,0.0469,-0.9873,-53.30,-106.76,-241.73
1570.000,-0.0565,0.0471,-0.9878,-57.89,-106.81,-242.54
1580.000,-0.0582,0.0478,-0.9874,-52.04,-106.18,-247.75
1590.000,-0.0582,0.0456,-0.9869,-49.58,-105.92,-245.28
1600.000,-0.0570,0.0464,-0.9868,-50.23,-109.36,-246.43
1610.000,-0.0570,0.0474,-0.9868,-44.66,-104.20,-242.25
1620.000,-0.0563,0.0471,-0.9884,-45.61,-107.13,-247.50
1630.000,-0.0601,0.0467,-0.9863,-52.82,-111.46,-243.72
1640.000,-0.0570,0.0476,-0.9854,-52.81,-110.24,-244.25
1650.000,-0.0573,0.0456,-0.9856,-62.44,-111.04,-247.53
1660.000,-0.0573,0.0461,-0.9859,-54.49,-108.01,-244.49
1670.000,-0.0581,0.0469,-0.9859,-51.32,-106.85,-245.29
1680.000,-0.0549,0.0462,-0.9850,-55.25,-110.07,-245.75
1690.000,-0.0561,0.0453,-0.9856,-46.53,-112.26,-242.11
1700.000,-0.0555,0.0474,-0.9856,-50.90,-108.73,-241.77
1710.000,-0.0587,0.0474,-0.9857,-48.33,-108.67,-243.28
1720.000,-0.0529,0.0467,-0.9873,-49.23,-110.98,-242.76
1730.000,-0.0542,0.0480,-0.9871,-53.31,-106.91,-242.55
1740.000,-0.0556,0.0458,-0.9871,-52.16,-108.26,-239.43
1750.000,-0.0564,0.0475,-0.9858,-47.26,-106.84,-238.32
1760.000,-0.0544,0.0459,-0.9853,-46.54,-106.05,-239.68
1770.000,-0.0529,0.0463,-0.9870,-47.73,-107.04,-243.80
1780.000,-0.0558,0.0468,-0.9860,-42.93,-104.87,-238.57
1790.000,-0.0571,0.0465,-0.9858,-41.66,-103.46,-244.16
1800.000,-0.0571,0.0466,-0.9861,-49.87,-105.91,-244.60
1810.000,-0.0555,0.0468,-0.9865,-51.46,-108.43,-240.53
1820.000,-0.0531,0.0462,-0.9876,-49.97,-105.16,-240.61
1830.000,-0.0579,0.0469,-0.9870,-48.34,-107.89,-246.69
1840.000,-0.0561,0.0471,-0.9866,-51.79,-103.07,-240.71
1850.000,-0.0582,0.0465,-0.9865,-46.39,-103.90,-243.48
1860.000,-0.0567,0.0470,-0.9866,-46.61,-108.43,-243.14
1870.000,-0.0586,0.0482,-0.9881,-48.11,-104.15,-244.03
1880.000,-0.0568,0.0456,-0.9856,-53.57,-105.66,-242.53
1890.000,-0.0555,0.0465,-0.9856,-51.50,-103.19,-239.35
1900.000,-0.0557,0.0466,-0.9870,-50.98,-105.95,-239.26
1910.000,-0.0556,0.0469,-0.9854,-49.86,-106.96,-241.47
1920.000,-0.0534,0.0456,-0.9862,-52.36,-102.77,-240.02
1930.000,-0.0561,0.0460,-0.9864,-51.46,-106.57,-245.02
1940.000,-0.0549,0.0470,-0.9858,-49.35,-100.44,-246.02
1950.000,-0.0555,0.0467,-0.9874,-48.27,-99.12,-237.78
1960.000,-0.0558,0.0467,-0.9861,-57.52,-102.28,-242.33
1970.000,-0.0570,0.0457,-0.9855,-57.26,-103.93,-241.54
1980.000,-0.0567,0.0476,-0.9870,-53.92,-101.00,-243.14
1990.000,-0.0538,0.0476,-0.9866,-49.97,-103.44,-245.24
2000.000,-0.0553,0.0462,-0.9871,-49.93,-102.16,-242.21
2010.000,-0.0577,0.0459,-0.9852,-58.01,-105.17,-243.61
2020.000,-0.0573,0.0475,-0.9867,-49.71,-106.68,-240.64
2030.000,-0.0565,0.0473,-0.9858,-59.19,-107.21,-243.91
2040.000,-0.0556,0.0455,-0.9868,-54.47,-107.58,-243.11
2050.000,-0.0558,0.0466,-0.9862,-56.10,-103.39,-240.85
2060.000,-0.0567,0.0461,-0.9848,-52.14,-99.85,-236.96
2070.000,-0.0551,0.0468,-0.9866,-51.22,-102.81,-240.98
2080.000,-0.0557,0.0470,-0.9872,-53.53,-104.79,-239.10
2090.000,-0.0564,0.0473,-0.9872,-51.18,-102.74,-235.78
2100.000,-0.0574,0.0464,-0.9855,-48.93,-102.59,-241.94
2110.000,-0.0563,0.0468,-0.9860,-54.78,-102.16,-239.46
2120.000,-0.0560,0.0474,-0.9868,-53.17,-101.08,-237.80
2130.000,-0.0584,0.0464,-0.9871,-49.44,-101.66,-234.53
2140.000,-0.0562,0.0456,-0.9856,-51.49,-96.40,-234.99
2150.000,-0.0546,0.0471,-0.9870,-43.99,-99.24,-240.12
2160.000,-0.0549,0.0459,-0.9844,-45.53,-98.61,-236.41
2170.000,-0.0564,0.0468,-0.9866,-45.56,-100.53,-236.44
2180.000,-0.0565,0.0460,-0.9857,-54.46,-99.73,-241.48
2190.000,-0.0573,0.0465,-0.9860,-53.80,-103.44,-240.58
2200.000,-0.0571,0.0466,-0.9866,-61.71,-104.92,-240.72
2210.000,-0.0564,0.0459,-0.9866,-58.69,-106.02,-236.23
2220.000,-0.0553,0.0484,-0.9876,-50.26,-103.70,-244.70
2230.000,-0.0562,0.0477,-0.9860,-50.55,-98.13,-239.13
2240.000,-0.0573,0.0471,-0.9862,-60.22,-101.40,-242.31
2250.000,-0.0557,0.0460,-0.9854,-49.56,-98.58,-240.51
2260.000,-0.0569,0.0460,-0.9863,-50.97,-103.94,-243.33
2270.000,-0.0583,0.0467,-0.9858,-46.65,-103.59,-241.14
2280.000,-0.0552,0.0465,-0.9861,-44.62,-101.87,-242.63
2290.000,-0.0545,0.0477,-0.9866,-42.56,-99.27,-240.67
2300.000,-0.0557,0.0473,-0.9868,-47.86,-98.90,-241.20
2310.000,-0.0558,0.0460,-0.9855,-44.29,-98.60,-243.94
2320.000,-0.0558,0.0465,-0.9881,-48.37,-102.24,-245.09
2330.000,-0.0562,0.0458,-0.9860,-55.70,-103.73,-245.10
2340.000,-0.0569,0.0468,-0.9884,-60.71,-105.47,-239.23
2350.000,-0.0572,0.0462,-0.9846,-53.80,-104.76,-237.18
2360.000,-0.0567,0.0468,-0.9846,-53.54,-103.08,-244.41
2370.000,-0.0573,0.0478,-0.9862,-49.04,-101.34,-240.55
2380.000,-0.0565,0.0464,-0.9863,-46.62,-104.07,-236.09
2390.000,-0.0565,0.0466,-0.9864,-54.34,-101.89,-239.05
2400.000,-0.0583,0.0474,-0.9867,-60.94,-102.32,-240.41
2410.000,-0.0547,0.0469,-0.9858,-51.88,-100.16,-239.57
2420.000,-0.0564,0.0468,-0.9860,-45.19,-102.36,-239.48
2430.000,-0.0551,0.0468,-0.9869,-51.62,-101.56,-240.55
2440.000,-0.0536,0.0477,-0.9868,-57.24,-103.89,-239.21
2450.000,-0.0568,0.0463,-0.9866,-59.03,-99.08,-241.59
2460.000,-0.0560,0.0474,-0.9862,-53.40,-97.79,-238.84
2470.000,-0.0556,0.0463,-0.9848,-50.93,-103.75,-238.95
2480.000,-0.0564,0.0479,-0.9855,-56.73,-101.24,-235.06
2490.000,-0.0560,0.0469,-0.9868,-55.99,-104.40,-244.29
2500.000,-0.0566,0.0451,-0.9858,-51.93,-103.06,-240.44
2510.000,-0.0564,0.0468,-0.9866,-59.19,-107.86,-241.05
2520.000,-0.0581,0.0465,-0.9876,-51.47,-103.01,-235.78
2530.000,-0.0561,0.0474,-0.9867,-57.76,-106.57,-245.00
2540.000,-0.0569,0.0467,-0.9856,-55.16,-106.72,-241.45
2550.000,-0.0585,0.0477,-0.9856,-56.33,-108.07,-242.02
2560.000,-0.0537,0.0461,-0.9862,-43.85,-107.88,-239.03
2570.000,-0.0552,0.0469,-0.9862,-47.95,-105.05,-239.52
2580.000,-0.0562,0.0468,-0.9861,-46.75,-100.31,-242.73
2590.000,-0.0578,0.0453,-0.9856,-49.78,-101.77,-243.16
2600.000,-0.0582,0.0477,-0.9848,-53.81,-103.98,-240.45
2610.000,-0.0547,0.0477,-0.9864,-53.37,-102.78,-242.08
2620.000,-0.0576,0.0462,-0.9871,-48.36,-102.35,-243.45
2630.000,-0.0541,0.0466,-0.9860,-47.79,-102.22,-243.31
2640.000,-0.0562,0.0475,-0.9864,-52.67,-104.93,-237.73
2650.000,-0.0559,0.0470,-0.9858,-43.64,-104.70,-237.33
2660.000,-0.0550,0.0475,-0.9866,-44.49,-104.40,-236.51
2670.000,-0.0560,0.0459,-0.9865,-43.07,-103.79,-239.92
2680.000,-0.0556,0.0469,-0.9868,-43.73,-100.48,-240.55
2690.000,-0.0553,0.0465,-0.9855,-33.23,-99.95,-236.05
2700.000,-0.0563,0.0459,-0.9866,-43.53,-106.23,-238.73
2710.000,-0.0553,0.0474,-0.9858,-40.57,-107.59,-242.73
2720.000,-0.0583,0.0476,-0.9865,-44.21,-104.03,-239.38
2730.000,-0.0560,0.0456,-0.9852,-42.04,-102.30,-240.31
2740.000,-0.0584,0.0465,-0.9864,-45.78,-105.05,-235.69
2750.000,-0.0549,0.0465,-0.9867,-51.24,-97.00,-237.88
2760.000,-0.0559,0.0461,-0.9864,-43.12,-106.01,-241.60
2770.000,-0.0577,0.0492,-0.9867,-44.00,-100.31,-238.36
2780.000,-0.0569,0.0470,-0.9860,-44.36,-103.77,-240.33
2790.000,-0.0538,0.0474,-0.9870,-41.25,-99.79,-235.89
2800.000,-0.0582,0.0459,-0.9863,-43.58,-101.55,-237.83
2810.000,-0.0564,0.0466,-0.9862,-40.34,-104.62,-236.66
2820.000,-0.0562,0.0475,-0.9883,-44.39,-99.17,-236.15
2830.000,-0.0557,0.0479,-0.9858,-42.30,-101.45,-238.79
2840.000,-0.0563,0.0466,-0.9856,-49.58,-99.55,-241.07
2850.000,-0.0573,0.0463,-0.9863,-46.70,-97.97,-241.74
2860.000,-0.0562,0.0475,-0.9861,-47.12,-97.42,-242.41
2870.000,-0.0575,0.0480,-0.9861,-40.99,-99.18,-241.22
2880.000,-0.0547,0.0465,-0.9860,-48.47,-93.78,-239.34
2890.000,-0.0564,0.0480,-0.9871,-46.68,-97.79,-239.00
2900.000,-0.0562,0.0472,-0.9856,-50.94,-96.71,-236.92
2910.000,-0.0557,0.0467,-0.9864,-39.80,-97.93,-238.88
2920.000,-0.0577,0.0460,-0.9861,-43.70,-100.43,-236.58
2930.000,-0.0566,0.0489,-0.9864,-43.77,-103.08,-239.36
2940.000,-0.0581,0.0467,-0.9853,-44.84,-100.26,-235.75
2950.000,-0.0554,0.0472,-0.9871,-47.79,-103.55,-240.05
2960.000,-0.0572,0.0472,-0.9866,-44.68,-99.32,-236.83
2970.000,-0.0561,0.0471,-0.9867,-41.88,-101.62,-240.16
2980.000,-0.0566,0.0467,-0.9856,-44.67,-105.00,-240.49
2990.000,-0.0571,0.0461,-0.9871,-41.86,-99.84,-240.96
3000.000,-0.0571,0.0487,-0.9861,-43.26,-99.22,-237.93
3010.000,-0.0560,0.0475,-0.9877,-40.11,-98.64,-240.67
3020.000,-0.0550,0.0469,-0.9856,-41.66,-98.28,-236.55
3030.000,-0.0560,0.0458,-0.9858,-43.31,-95.07,-235.40
3040.000,-0.0557,0.0476,-0.9862,-42.82,-98.68,-237.79
3050.000,-0.0592,0.0455,-0.9876,-41.43,-100.78,-238.51
3060.000,-0.0585,0.0473,-0.9875,-42.95,-105.16,-239.81
3070.000,-0.0554,0.0471,-0.9866,-50.40,-107.01,-235.58
3080.000,-0.0555,0.0458,-0.9866,-44.07,-104.56,-237.61
3090.000,-0.0551,0.0476,-0.9856,-47.11,-98.45,-237.64
3100.000,-0.0591,0.0475,-0.9867,-51.50,-102.79,-240.03
3110.000,-0.0599,0.0472,-0.9871,-49.62,-102.41,-239.34
3120.000,-0.0581,0.0469,-0.9856,-48.45,-101.44,-237.55
3130.000,-0.0544,0.0462,-0.9864,-47.04,-103.11,-236.75
3140.000,-0.0597,0.0479,-0.9878,-50.95,-103.64,-241.00
3150.000,-0.0558,0.0468,-0.9865,-51.44,-100.03,-239.43
3160.000,-0.0053,0.0319,-0.8421,-101.38,19.36,-252.17
3170.000,-0.0331,0.0371,-0.9922,205.47,-18.10,-455.51
3180.000,-0.0265,0.0428,-0.9876,249.21,-29.36,-479.60
3190.000,-0.0286,0.0435,-0.9872,253.12,-34.41,-480.92
3200.000,-0.0262,0.0479,-0.9879,264.09,-30.36,-480.06
3210.000,-0.0282,0.0432,-0.9884,249.74,-31.71,-479.78
3220.000,-0.0285,0.0430,-0.9879,256.12,-35.81,-478.63
3230.000,-0.0294,0.0424,-0.9852,250.89,-30.79,-481.27
3240.000,-0.0258,0.0425,-0.9865,254.16,-32.91,-480.49
3250.000,-0.0314,0.0419,-0.9870,249.42,-36.02,-474.37
3260.000,-0.0261,0.0421,-0.9865,254.44,-34.78,-476.28
3270.000,-0.0263,0.0432,-0.9885,255.87,-36.01,-473.43
3280.000,-0.0270,0.0431,-0.9868,247.45,-34.18,-472.83
3290.000,-0.0298,0.0421,-0.9869,250.44,-33.48,-477.75
3300.000,-0.0298,0.0435,-0.9880,241.95,-35.39,-479.27
3310.000,-0.0286,0.0436,-0.9870,249.42,-35.35,-475.32
3320.000,-0.0282,0.0434,-0.9878,260.10,-37.02,-480.57
3330.000,-0.0286,0.0435,-0.9880,252.01,-34.31,-475.99
3340.000,-0.0286,0.0424,-0.9887,253.14,-35.18,-477.10
3350.000,-0.0281,0.0412,-0.9872,251.65,-37.11,-480.01
3360.000,-0.0267,0.0415,-0.9878,248.11,-34.18,-482.01
3370.000,-0.0276,0.0412,-0.9864,250.64,-38.82,-475.93
3380.000,-0.0281,0.0425,-0.9884,251.41,-34.22,-480.23
3390.000,-0.0288,0.0408,-0.9868,253.82,-34.86,-483.26
3400.000,-0.0274,0.0415,-0.9868,254.81,-34.50,-485.58
3410.000,-0.0297,0.0445,-0.9883,256.68,-34.66,-483.95
3420.000,-0.0278,0.0415,-0.9862,254.66,-35.98,-482.87
3430.000,-0.0298,0.0420,-0.9882,250.75,-31.46,-480.32
3440.000,-0.0274,0.0405,-0.9862,247.68,-35.49,-477.78
3450.000,-0.0309,0.0402,-0.9846,249.98,-33.93,-481.18
3460.000,-0.0286,0.0411,-0.9866,260.01,-33.58,-480.65
3470.000,-0.0285,0.0422,-0.9872,255.39,-34.76,-483.13
3480.000,-0.0298,0.0424,-0.9874,251.16,-32.31,-481.02
3490.000,-0.0292,0.0426,-0.9875,250.85,-33.40,-481.04
3500.000,-0.0295,0.0429,-0.9870,252.70,-32.52,-484.32
3510.000,-0.0261,0.0421,-0.9867,253.16,-31.43,-484.03
3520.000,-0.0277,0.0416,-0.9884,256.28,-33.79,-481.61
3530.000,-0.0291,0.0410,-0.9867,257.16,-32.31,-481.99
3540.000,-0.0259,0.0417,-0.9876,253.40,-35.35,-479.43
3550.000,-0.0289,0.0415,-0.9880,252.54,-35.88,-479.17
3560.000,-0.0279,0.0418,-0.9870,259.57,-33.87,-482.02
3570.000,-0.0279,0.0421,-0.9884,259.01,-32.63,-483.10
3580.000,-0.0282,0.0406,-0.9876,260.36,-31.74,-476.24
3590.000,-0.0289,0.0413,-0.9868,256.69,-34.11,-484.21
3600.000,-0.0288,0.0425,-0.9877,246.84,-30.94,-487.84
3610.000,-0.0277,0.0422,-0.9861,256.48,-32.10,-477.88
3620.000,-0.0302,0.0415,-0.9878,257.19,-31.33,-480.61
3630.000,-0.0301,0.0421,-0.9880,255.38,-36.91,-480.15
3640.000,-0.0307,0.0420,-0.9876,253.82,-37.24,-476.45
3650.000,-0.0293,0.0423,-0.9875,258.14,-35.30,-478.35
